Z-Piezo Deflection [nm]	Tip Deflection on Retraction [nm]	Tip Deflection on Approach [nm]
-980.0768	428.9148	428.3148
-977.5377	427.1833	426.1719
-974.9987	425.4348	424.1148
-972.4596	423.7205	422.0062
-969.9205	421.9205	419.9319
-967.3815	420.1548	417.7376
-964.8424	418.3205	415.6462
-962.3033	416.4862	413.4862
-959.7643	414.6862	411.3433
-957.2253	412.8005	409.1662
-954.6862	410.9319	407.0405
-952.1472	409.0462	404.8462
-949.6081	407.2119	402.6862
-947.069	405.3091	400.4405
-944.53	403.3719	398.2633
-941.9909	401.469	396.0519
-939.4518	399.4805	393.8233
-936.9128	397.5605	391.5605
-934.3737	395.6233	389.349
-931.8347	393.669	387.1376
-929.2956	391.629	384.8576
-926.7565	389.6747	382.5605
-924.2175	387.7376	380.3147
-921.6784	385.6805	378.0347
-919.1393	383.6919	375.7547
-916.6003	381.6176	373.4233
-914.0613	379.6633	371.1261
-911.5222	377.589	368.8461
-908.9832	375.5662	366.549
-906.4441	373.4404	364.1661
-903.905	371.4861	361.8518
-901.366	369.3433	359.4861
-898.8269	367.2861	357.1204
-896.2878	365.1604	354.7547
-893.7488	363.0861	352.389
-891.2097	360.9776	350.0747
-888.6707	358.8518	347.6918
-886.1316	356.7433	345.2575
-883.5925	354.6176	342.8575
-881.0535	352.4233	340.4747
-878.5144	350.2975	338.0233
-875.9753	348.1547	335.6061
-873.4363	345.9947	333.2061
-870.8972	343.8347	330.7547
-868.3582	341.6575	328.3032
-865.8192	339.429	325.8347
-863.2801	337.2518	323.4347
-860.741	335.0747	320.9661
-858.202	332.8633	318.4975
-855.6629	330.6518	316.0289
-853.1238	328.4061	313.5775
-850.5848	326.2289	311.0403
-848.0457	324.0175	308.5889
-845.5067	321.7204	306.1032
-842.9676	319.4918	303.5832
-840.4285	317.2804	301.0804
-837.8895	314.9489	298.5775
-835.3504	312.6518	296.0575
-832.8113	310.3546	293.5203
-830.2723	308.0918	290.9832
-827.7333	305.7946	288.4632
-825.1942	303.4975	285.8918
-822.6552	301.2175	283.3203
-820.1161	298.9203	280.7832
-817.577	296.6232	278.246
-815.038	294.2575	275.6403
-812.4989	291.9946	273.086
-809.9598	289.6461	270.5146
-807.4208	287.3489	267.9089
-804.8817	284.8975	265.3717
-802.3427	282.5832	262.766
-799.8036	280.286	260.1774
-797.2645	277.9546	257.5717
-794.7255	275.5032	254.966
-792.1864	273.1718	252.3946
-789.6473	270.7717	249.7374
-787.1083	268.406	247.1317
-784.5692	266.0232	244.5774
-782.0302	263.6232	241.9546
-779.4911	261.2746	239.3146
-776.952	258.8403	236.6917
-774.413	256.4232	234.0688
-771.874	254.006	231.4288
-769.3349	251.5717	228.7717
-766.7958	249.1546	226.1831
-764.2568	246.7374	223.526
-761.7177	244.3203	220.8688
-759.1786	241.886	218.2288
-756.6396	239.4346	215.5888
-754.1005	237.0003	212.9317
-751.5615	234.566	210.3088
-749.0224	232.0974	207.6517
-746.4833	229.6631	204.9945
-743.9443	227.2117	202.3202
-741.4053	224.7774	199.6974
-738.8662	222.2917	196.9716
-736.3271	219.806	194.3145
-733.7881	217.3888	191.6745
-731.249	214.8517	188.9831
-728.71	212.366	186.2916
-726.1709	209.8631	183.6002
-723.6318	207.3431	180.9259
-721.0928	204.8917	178.2688
-718.5537	202.4059	175.5773
-716.0146	199.9202	172.9373
-713.4756	197.3831	170.2288
-710.9365	194.9145	167.5716
-708.3975	192.4288	164.8802
-705.8584	189.9259	162.1545
-703.3193	187.4231	159.4459
-700.7803	184.8688	156.8059
-698.2412	182.4174	154.0802
-695.7021	179.8459	151.3545
-693.1631	177.3088	148.663
-690.624	174.8231	145.9887
-688.085	172.3202	143.263
-685.5459	169.7659	140.5887
-683.0068	167.2116	137.9316
-680.4678	164.7088	135.223
-677.9288	162.1373	132.5487
-675.3897	159.583	129.8744
-672.8506	157.063	127.1487
-670.3116	154.5259	124.4573
-667.7725	151.9888	121.8001
-665.2335	149.4345	119.0916
-662.6944	146.8802	116.4173
-660.1553	144.2916	113.7087
-657.6163	141.7716	111.0173
-655.0773	139.2002	108.3258
-652.5382	136.5944	105.6516
-649.9991	134.143	102.9944
-647.4601	131.5202	100.2858
-644.921	128.9659	97.57726
-642.382	126.4287	94.90297
-639.8429	123.8916	92.21153
-637.3038	121.3201	89.53725
-634.7648	118.7144	86.84582
-632.2257	116.2287	84.12009
-629.6866	113.6401	81.46295
-627.1476	111.0516	78.78867
-624.6085	108.5144	76.09723
-622.0695	105.8573	73.44009
-619.5304	103.3887	70.74865
-616.9913	100.8173	68.12579
-614.4523	98.22868	65.41722
-611.9132	95.67439	62.77721
-609.3741	93.13725	60.15435
-606.8351	90.56582	57.44578
-604.296	87.9601	54.80578
-601.757	85.4401	52.16578
-599.2179	82.86867	49.49149
-596.6788	80.29723	46.83434
-594.1398	77.76009	44.17719
-591.6008	75.15437	41.52005
-589.0617	72.61723	38.91433
-586.5226	70.11436	36.30861
-583.9836	67.56008	33.72004
-581.4445	64.9715	31.06289
-578.9055	62.41721	28.5086
-576.3664	59.88007	26.16003
-573.8273	57.30864	30.03432
-571.2883	54.75435	30.29146
-568.7493	52.18292	30.29146
-566.2102	49.64577	30.27432
-563.6711	47.0572	30.24003
-561.1321	44.50291	30.12004
-558.593	42.01719	30.01718
-556.054	39.39433	29.96575
-553.5149	36.90862	29.89718
-550.9758	34.35432	29.79432
-548.4368	31.83432	29.69146
-545.8977	29.31432	29.65718
-543.3586	26.76003	29.57146
-540.8196	24.25717	29.43432
-538.2805	21.6686	29.34861
-535.7415	19.16574	29.24575
-533.2024	16.61145	29.16003
-530.6633	14.10859	29.07432
-528.1243	11.53716	28.92003
-525.5852	9.017154	28.81718
-523.0461	6.548579	28.73146
-520.5071	3.960005	28.57718
-517.968	1.49143	28.49146
-515.429	-1.028573	28.40575
-512.8899	-3.531433	28.2686
-510.3509	-6.034293	28.20003
-507.8118	-8.537152	28.0286
-505.2727	-11.02287	27.87432
-502.7337	-13.52573	27.75432
-500.1946	-16.04573	27.6686
-497.6556	-18.49716	27.49718
-495.1165	-21.03431	27.4286
-492.5775	-23.53717	27.3086
-490.0384	-26.04003	27.20575
-487.4993	-28.49146	27.08574
-484.9603	-31.02861	26.9486
-482.4212	-33.48004	26.89717
-479.8822	-35.91433	26.67432
-477.3431	-38.41719	26.45146
-474.804	-40.85147	26.28003
-472.265	-43.33719	26.36575
-469.7259	-45.75434	26.36575
-467.1869	-48.24006	26.33146
-464.6478	-50.64006	26.2286
-462.1088	-53.1772	26.17717
-459.5697	-55.57721	26.09146
-457.0306	-58.04578	26.00574
-454.4916	-60.46293	25.95432
-451.9525	-62.91436	25.90289
-449.4135	-65.40008	25.81717
-446.8744	-67.74865	25.78289
-444.3353	-70.20008	25.7486
-441.7963	-72.60008	25.68003
-439.2572	-75.01723	25.66289
-436.7181	-77.41723	25.61146
-434.1791	-79.85152	25.59431
-431.64	-82.30296	25.56003
-429.101	-84.70296	25.52574
-426.5619	-87.08582	25.49146
-424.0229	-89.41724	25.47432
-421.4838	-91.85153	25.42289
-418.9448	-94.2344	25.44003
-416.4057	-96.56583	25.40574
-413.8666	-98.93154	25.3886
-411.3276	-101.3144	25.37146
-408.7885	-103.663	25.33717
-406.2495	-106.0287	25.35431
-403.7104	-108.3773	25.35431
-401.1713	-110.743	25.33717
-398.6323	-113.1087	25.37146
-396.0932	-115.4058	25.37146
-393.5541	-117.8058	25.35431
-391.0151	-120.0859	25.33717
-388.476	-122.4687	25.35431
-385.937	-124.7316	25.33717
-383.3979	-127.0801	25.37146
-380.8588	-129.3602	25.3886
-378.3198	-131.6744	25.3886
-375.7808	-133.9887	25.42289
-373.2417	-136.303	25.40574
-370.7026	-138.6002	25.42289
-368.1636	-140.863	25.44003
-365.6245	-143.1602	25.45717
-363.0854	-145.4059	25.45717
-360.5464	-147.703	25.47432
-358.0073	-149.9316	25.45717
-355.4683	-152.2459	25.45717
-352.9292	-154.423	25.45717
-350.3901	-156.703	25.47432
-347.8511	-158.9316	25.45717
-345.312	-161.1945	25.45717
-342.7729	-163.423	25.47432
-340.2339	-165.6345	25.45717
-337.6948	-167.8459	25.45717
-335.1558	-170.0916	25.40574
-332.6168	-172.2516	25.3886
-330.0777	-174.5145	25.42289
-327.5386	-176.7088	25.3886
-324.9996	-178.9545	25.37146
-322.4605	-181.0802	25.35431
-319.9214	-183.2916	25.37146
-317.3824	-185.4345	25.33717
-314.8433	-187.6974	25.28574
-312.3043	-189.7888	25.2686
-309.7652	-191.9317	25.25146
-307.2261	-194.0745	25.23431
-304.6871	-196.2688	25.21717
-302.148	-198.4117	25.18289
-299.6089	-200.5031	25.1486
-297.0699	-202.646	25.09717
-294.5308	-204.7888	25.08003
-291.9918	-206.8802	25.04574
-289.4528	-208.9888	24.99431
-286.9137	-211.0631	24.92574
-284.3746	-213.2402	24.87432
-281.8356	-215.3317	24.84003
-279.2965	-217.406	24.75431
-276.7574	-219.4631	24.72003
-274.2184	-221.5545	24.65146
-271.6793	-223.6974	24.61717
-269.1403	-225.686	24.53146
-266.6012	-227.7431	24.49717
-264.0621	-229.8003	24.4286
-261.5231	-231.8746	24.37717
-258.984	-233.8974	24.29146
-256.4449	-235.886	24.24003
-253.9059	-237.9088	24.1886
-251.3668	-239.966	24.13717
-248.8278	-241.9546	24.10288
-246.2888	-243.9774	24.08574
-243.7497	-245.9317	24.00003
-241.2106	-247.9374	23.9486
-238.6716	-249.9431	23.88003
-236.1325	-251.8803	23.8286
-233.5934	-253.886	23.77717
-231.0544	-255.8403	23.64003
-228.5153	-257.8632	23.53717
-225.9763	-259.7489	23.50288
-223.4372	-261.7203	23.43431
-220.8981	-263.6574	23.38288
-218.3591	-265.6289	23.31431
-215.82	-267.5489	23.26288
-213.2809	-269.4346	23.24574
-210.7419	-271.3889	23.17717
-208.2028	-273.2917	23.07431
-205.6638	-275.2118	23.05717
-203.1247	-277.0803	22.97145
-200.5857	-279.0003	22.93717
-198.0466	-280.8689	22.85146
-195.5076	-282.7375	22.76574
-192.9685	-284.606	22.7486
-190.4294	-286.4232	22.66288
-187.8904	-288.326	22.56003
-185.3513	-290.1775	22.44003
-182.8123	-291.9946	22.33717
-180.2732	-293.8803	22.21717
-177.7341	-295.6975	22.11431
-175.1951	-297.5489	21.97717
-172.656	-299.2803	21.87431
-170.1169	-301.0975	21.97717
-167.5779	-302.9832	21.92574
-165.0388	-304.7318	21.84002
-162.4998	-306.5318	21.75431
-159.9607	-308.2975	21.6686
-157.4216	-310.0804	21.5486
-154.8826	-311.9318	21.44574
-152.3436	-313.6289	21.34288
-149.8045	-315.4118	21.22288
-147.2654	-317.1261	21.0686
-144.7264	-318.8747	21.00002
-142.1873	-320.6061	20.88002
-139.6483	-322.3032	20.81145
-137.1092	-324.0518	20.7086
-134.5701	-325.7661	20.58859
-132.0311	-327.4632	20.4686
-129.492	-329.1775	20.40002
-126.9529	-330.8918	20.28002
-124.4139	-332.6232	20.12574
-121.8748	-334.2347	20.02288
-119.3358	-335.9147	19.92002
-116.7967	-337.5947	19.81717
-114.2576	-339.2747	19.88574
-111.7186	-340.9547	19.78288
-109.1796	-342.549	19.73145
-106.6405	-344.1947	19.62859
-104.1014	-345.8747	19.54288
-101.5624	-347.5033	19.44002
-99.02332	-349.0633	19.38859
-96.48425	-350.7261	19.26859
-93.94519	-352.3033	19.20002
-91.40613	-353.9318	19.13145
-88.86707	-355.509	19.08002
-86.328	-357.1033	18.97717
-83.78894	-358.6976	18.92574
-81.24988	-360.2576	18.94288
-78.71082	-361.8004	18.92574
-76.17175	-363.3947	18.87431
-73.63269	-364.9547	18.78859
-71.09363	-366.5147	18.68574
-68.55457	-368.0919	18.65145
-66.01556	-369.5147	18.61716
-63.4765	-371.109	18.56573
-60.93744	-372.7033	18.51431
-58.39838	-374.1604	18.49716
-55.85931	-375.6176	18.42859
-53.32025	-377.1433	18.41145
-50.78119	-378.6176	18.37716
-48.24213	-380.1604	18.37716
-45.70306	-381.6004	18.34288
-43.164	-383.0747	18.36002
-40.62494	-384.5662	18.34288
-38.08588	-386.0404	18.34288
-35.54681	-387.429	18.39431
-33.00775	-388.9033	18.37716
-30.46869	-390.3947	18.37716
-27.92963	-391.8347	18.36002
-25.39056	-393.2404	18.34288
-22.85156	-394.6462	18.30859
-20.3125	-396.069	18.34288
-17.77344	-397.509	18.32574
-15.23438	-398.9147	18.30859
-12.69531	-400.269	18.29145
-10.15625	-401.6576	18.30859
-7.617188	-403.1147	18.27431
-5.078125	-404.4348	18.34288
-2.539063	-405.7548	18.41145
0	-407.1605	18.41145
2.539063	-391.869	18.42859
5.078125	16.62859	18.46288
7.617188	17.41716	18.51431
10.15625	17.58859	18.51431
12.69531	17.67431	18.53145
15.23438	17.74288	18.53145
17.77344	17.82859	18.56573
20.3125	17.88002	18.56573
22.8515	17.96573	18.60002
25.39056	18.01716	18.60002
27.92963	18.06859	18.63431
30.46869	18.13716	18.61716
33.00775	18.20574	18.63431
35.54681	18.20574	18.63431
38.08588	18.27431	18.66859
40.62494	18.29145	18.63431
43.16406	18.32574	18.61716
45.703	18.37716	18.65145
48.24207	18.46288	18.65145
50.78113	18.42859	18.63431
53.32019	18.41145	18.66859
55.85925	18.41145	18.63431
58.39832	18.37716	18.61716
60.93738	18.32574	18.60002
63.47644	18.29145	18.58288
66.0155	18.25716	18.56573
68.55457	18.22288	18.54859
71.09363	18.12002	18.53145
73.63269	18.06859	18.49716
76.17175	17.98288	18.46288
78.71082	17.89716	18.46288
81.24988	17.82859	18.41145
83.78894	17.72573	18.37716
86.328	17.60573	18.36002
88.86707	17.53716	18.32574
91.40613	17.43431	18.29145
93.94519	17.24574	18.22288
96.48425	17.05716	18.18859
99.02332	16.8343	18.13716
101.5624	16.68002	18.06859
104.1014	16.66288	18.03431
106.6405	17.82859	17.96573
109.1796	17.82859	17.93145
111.7186	17.81145	17.88002
114.2577	17.72573	17.81145
116.7968	17.69145	17.77716
119.3358	17.64002	17.74288
121.8749	17.74288	17.69145
124.4139	18.06859	17.65716
126.953	18.01716	17.58859
129.4921	17.96573	17.57145
132.0311	17.94859	17.52002
134.5701	17.82859	17.52002
137.1091	17.76002	17.46859
139.6482	17.69145	17.41716
142.1873	17.62288	17.33145
144.7263	17.57145	17.29716
147.2654	17.45145	17.22859
149.8044	17.36573	17.19431
152.3435	17.22859	17.12573
154.8826	17.10859	17.09145
157.4216	16.95431	17.02288
159.9607	16.8343	16.98859
162.4998	16.73145	16.93716
165.0388	16.59431	16.85145
167.5779	16.44002	16.80002
170.1169	16.25145	16.73145
172.656	16.13145	16.68002
175.1951	15.96002	16.61145
177.7341	15.77145	16.57716
180.2732	15.60002	16.50859
182.8123	15.42859	16.45716
185.3513	15.2743	16.37145
187.8904	15.08573	16.30288
190.4294	14.81145	16.20002
192.9685	15.56573	16.14859
195.5076	16.30288	16.08002
198.0466	16.20002	16.01145
200.5857	16.02859	15.94288
203.1248	15.94288	15.85716
205.6638	15.82288	15.78859
208.2029	15.70288	15.68573
210.7419	15.53145	15.60002
213.281	15.41145	15.53145
215.8201	15.29145	15.44573
218.3591	15.17145	15.37716
220.8982	14.98287	15.29145
223.4371	14.86287	15.22287
225.9762	14.65716	15.13716
228.5153	14.4343	15.0343
231.0543	14.17716	14.96573
233.5934	13.9543	14.84573
236.1324	13.74859	14.74287
238.6715	13.50859	14.64002
241.2106	14.26287	14.5543
243.7496	15.2743	14.46859
246.2887	15.13716	14.3143
248.8278	15.05145	14.22859
251.3668	14.93145	14.16002
253.9059	14.82859	14.0743
256.4449	14.70859	14.00573
258.984	14.57145	13.9543
261.5231	14.46859	13.86859
264.0621	14.38287	13.80002
266.6012	14.29716	13.76573
269.1403	14.1943	13.66287
271.6793	14.0743	13.61144
274.2184	13.98859	13.50859
276.7574	13.93716	13.44002
279.2965	13.85144	13.37144
281.8356	13.73144	13.3543
284.3746	13.66287	13.26859
286.9137	13.54287	13.21716
289.4528	13.45716	13.20002
291.9918	13.38859	13.18287
294.5309	13.30287	13.14859
297.0699	13.2343	13.13144
299.609	13.21716	13.04573
302.1481	13.18287	13.04573
304.6871	13.13144	13.02859
307.2262	13.06287	12.97716
309.7653	12.9943	12.96002
312.3042	12.94287	12.89144
314.8433	12.8743	12.89144
317.3823	12.78859	12.8743
